#   RA   Dec   GaiaMag_V   counts    aper_SNR    mag_V   err_mag_V
346.616465 58.457562 13.745 5175.20 37.3 13.655 0.029
346.760257 58.459667 13.297 6663.35 45.3 13.381 0.024
346.846600 58.460809 15.662 1053.59 8.2 15.383 0.125
347.031706 58.464168 13.827 4232.50 30.0 13.873 0.036
347.031706 58.464168 13.827 8390.45 54.2 13.130 0.020
346.699238 58.466674 15.037 1666.96 12.7 14.885 0.082
346.998543 58.469336 15.616 920.97 7.2 15.529 0.141
346.876453 58.476306 15.466 964.09 7.5 15.480 0.135
346.741138 58.468682 14.352 2459.28 18.3 14.463 0.058
346.949031 58.475553 15.076 1319.48 10.1 15.139 0.102
346.745841 58.475774 12.808 11109.42 68.2 12.826 0.016
346.583771 58.474503 14.950 1476.42 11.4 15.017 0.091
346.972999 58.479426 15.207 1393.66 10.8 15.080 0.097
346.610502 58.477031 12.523 13472.73 79.4 12.616 0.014
347.059967 58.480660 11.618 33454.49 154.3 11.629 0.007
346.942932 58.482331 14.716 2135.33 16.1 14.616 0.065
346.554223 58.481618 13.028 8606.47 55.9 13.103 0.019
346.883541 58.484533 14.257 2626.50 19.5 14.391 0.054
346.803202 58.485069 15.197 1134.99 8.8 15.302 0.117
346.682839 58.490519 13.807 4159.88 30.0 13.892 0.036
346.654965 58.491805 14.197 3046.94 22.6 14.230 0.047
346.809027 58.495336 14.917 1755.20 13.4 14.829 0.078
346.990487 58.499150 14.792 1795.74 13.8 14.804 0.076
347.026863 58.499922 13.592 5148.78 36.1 13.661 0.030
346.719259 58.500210 13.104 8165.68 53.3 13.160 0.020
346.601430 58.500465 14.419 2890.06 21.6 14.288 0.049
347.064878 58.507292 14.361 2140.60 19.3 14.614 0.055
346.837438 58.506478 15.236 896.26 7.1 15.559 0.144
346.720334 58.505774 15.133 1616.89 12.4 14.918 0.084
346.567274 58.505243 13.078 8106.11 53.0 13.168 0.020
346.911853 58.508663 14.441 2543.22 19.0 14.426 0.056
346.895218 58.508951 15.192 1023.43 8.0 15.415 0.128
346.749570 58.510391 14.922 1333.29 10.3 15.128 0.100
346.612071 58.509701 14.448 2321.86 17.5 14.525 0.060
346.777289 58.513597 15.380 1123.41 8.8 15.314 0.117
346.550407 58.511853 14.516 1999.29 15.2 14.688 0.069
346.679714 58.517131 14.442 2462.98 18.6 14.461 0.057
346.736799 58.519480 15.127 1190.26 9.3 15.251 0.111
346.656850 58.525489 12.120 20170.91 107.3 12.178 0.010
346.740280 58.526863 13.742 4624.42 32.7 13.777 0.033
346.968134 58.529061 14.090 3001.00 22.1 14.247 0.048
346.764401 58.528412 15.158 1289.08 10.0 15.164 0.104
347.046846 58.532721 14.335 2784.49 20.7 14.328 0.051
346.531159 58.530002 14.547 3747.11 29.0 14.006 0.037
346.933036 58.533538 11.434 37594.93 163.6 11.502 0.007
346.747937 58.535305 15.010 1286.25 10.0 15.167 0.104
346.679625 58.534932 13.023 8518.01 55.3 13.114 0.019
346.722572 58.537083 14.437 924.47 7.2 15.525 0.140
346.852904 58.537315 14.217 3029.84 22.4 14.236 0.047
346.722572 58.537083 14.437 2406.08 18.2 14.487 0.058
346.983472 58.538919 13.659 4812.29 34.1 13.734 0.031
347.032524 58.539953 14.881 1379.99 10.7 15.090 0.097
346.963411 58.543264 12.305 16671.75 93.5 12.385 0.012
346.938214 58.547705 14.142 2914.42 21.6 14.279 0.049
346.944157 58.548510 15.502 1062.32 8.3 15.374 0.123
346.748099 58.548024 15.266 1381.40 10.7 15.089 0.097
346.780262 58.549194 13.679 4683.91 33.0 13.763 0.032
346.798596 58.550439 13.292 6459.71 43.3 13.414 0.025
346.928824 58.551684 14.900 1529.49 11.8 14.979 0.088
347.016236 58.553260 12.790 10932.99 67.6 12.843 0.016
346.984893 58.555142 14.769 1646.68 12.7 14.898 0.082
346.791983 58.554192 9.905 238528.50 472.9 9.496 0.002
346.728074 58.553834 15.101 1560.97 12.1 14.956 0.086
346.767472 58.555849 15.045 1301.62 10.1 15.154 0.102
347.023586 58.562206 14.490 2130.56 16.1 14.619 0.065
346.596925 58.562196 14.194 3136.95 23.4 14.199 0.045
346.986693 58.568932 13.135 7705.43 50.8 13.223 0.021
346.897013 58.568710 13.284 6220.59 42.2 13.455 0.025
346.778725 58.568901 14.018 3980.70 28.9 13.940 0.037
346.952555 58.571834 13.388 6075.93 41.9 13.481 0.026
346.992397 58.573346 11.040 54043.95 205.2 11.108 0.005
346.547662 58.572321 14.069 3029.16 22.5 14.237 0.047
346.940076 58.575919 14.405 2327.12 17.6 14.523 0.060
346.563992 58.574165 11.326 41124.38 173.6 11.405 0.006
346.816573 58.576870 15.196 1224.83 9.6 15.220 0.108
346.688445 58.575971 14.819 1926.14 14.7 14.728 0.071
346.680988 58.576147 12.899 9209.11 58.9 13.029 0.018
347.060126 58.579227 14.435 3391.96 26.9 14.114 0.040
346.771095 58.586804 13.764 4422.98 31.6 13.826 0.034
347.041266 58.588811 14.703 1752.51 13.5 14.831 0.078
346.879190 58.592257 14.643 2167.25 16.5 14.600 0.064
346.994602 58.598636 13.738 4483.26 31.9 13.811 0.033
346.627601 58.597438 13.403 5819.37 40.2 13.528 0.027
346.842993 58.602894 11.775 26615.92 130.5 11.877 0.008
346.869562 58.604186 14.818 1776.64 13.7 14.816 0.077
346.889412 58.606559 13.590 947.86 7.5 15.498 0.136
346.972958 58.605851 15.256 1044.37 8.2 15.393 0.125
347.049937 58.607224 12.871 9661.72 61.3 12.977 0.018
346.889412 58.606559 13.590 5245.79 36.7 13.640 0.029
346.796158 58.606016 12.501 13749.28 81.0 12.594 0.013
346.736027 58.607370 12.329 15984.31 90.7 12.431 0.012
346.688953 58.607078 14.079 3289.27 24.3 14.147 0.044
346.775334 58.608531 13.293 6697.64 45.3 13.375 0.024
346.874739 58.618774 14.268 2719.04 20.4 14.354 0.052
347.029260 58.620797 12.807 10346.67 64.8 12.903 0.017
346.942769 58.621291 13.458 5501.93 38.3 13.589 0.028
346.848376 58.620905 14.375 2302.00 17.5 14.535 0.060
346.911134 58.621605 9.799 170102.31 395.1 9.863 0.003
346.822941 58.621972 14.885 1810.22 13.9 14.796 0.075
346.687327 58.624067 13.717 4629.67 33.1 13.776 0.032
346.922131 58.627833 15.059 1384.30 10.7 15.087 0.097
346.787805 58.627549 13.166 7500.93 50.0 13.252 0.021
346.686637 58.627557 13.934 3671.25 26.8 14.028 0.040
347.013400 58.630138 14.539 1875.76 14.4 14.757 0.073
346.890092 58.633743 13.195 7146.49 47.9 13.305 0.022
346.636898 58.636048 12.760 10840.61 67.5 12.852 0.016
346.966745 58.642797 13.904 3731.00 27.0 14.010 0.039
346.918656 58.643803 13.618 4717.80 33.3 13.756 0.032
346.591767 58.642869 14.601 1847.81 14.2 14.773 0.074
346.786497 58.644948 13.123 7686.90 50.8 13.226 0.021
347.037174 58.648905 12.057 20939.17 110.1 12.138 0.010
346.634061 58.648466 12.607 12719.99 76.5 12.679 0.014
346.689404 58.651536 14.474 2194.31 16.7 14.587 0.063
346.755644 58.652952 13.376 5994.42 41.3 13.496 0.026
346.676685 58.652598 14.291 2449.08 18.5 14.467 0.057
346.867717 58.654850 14.334 2589.93 19.6 14.407 0.054
346.547358 58.656273 13.200 7327.99 49.2 13.277 0.022
346.816974 58.660558 13.738 4289.36 30.8 13.859 0.035
346.525614 58.662978 13.856 10560.89 101.7 12.881 0.011
